OOIBase32 Version 2.0.6.5 Data File
++++++++++++++++++++++++++++++++++++
Date: 05-07-2014, 16:32:28
User: Valued Ocean Optics Customer
Spectrometer Serial Number: 
Spectrometer Channel: Master
Integration Time (msec): 50
Spectra Averaged: 10
Boxcar Smoothing: 0
Correct for Electrical Dark: Disabled
Time Normalized: Disabled
Dual-beam Reference: Disabled
Reference Channel: Master
Temperature: Not acquired
Spectrometer Type: S2000
ADC Type: USB2000
Number of Pixels in File: 2048
Graph Title: 
>>>>>Begin Spectral Data<<<<<
355.95	0.000
356.31	165.100
356.67	165.600
357.03	166.600
357.38	167.700
357.74	169.500
358.10	168.600
358.45	170.200
358.81	173.700
359.17	170.100
359.53	172.200
359.88	171.800
360.24	172.200
360.60	172.800
360.95	173.000
361.31	171.400
361.67	172.700
362.03	173.400
362.38	173.900
362.74	171.900
363.10	172.300
363.45	173.800
363.81	171.500
364.17	172.300
364.52	170.400
364.88	178.300
365.24	173.400
365.59	173.100
365.95	173.500
366.31	174.200
366.66	172.700
367.02	173.100
367.38	177.300
367.73	174.300
368.09	175.200
368.45	175.000
368.80	173.000
369.16	174.500
369.51	171.700
369.87	175.400
370.23	176.400
370.58	174.600
370.94	174.800
371.30	174.000
371.65	172.600
372.01	173.000
372.36	174.500
372.72	173.900
373.08	177.600
373.43	177.200
373.79	173.000
374.14	174.500
374.50	173.600
374.85	173.400
375.21	175.400
375.57	174.300
375.92	175.000
376.28	174.900
376.63	175.800
376.99	175.700
377.34	172.900
377.70	176.100
378.06	173.500
378.41	174.900
378.77	175.200
379.12	173.300
379.48	174.600
379.83	176.100
380.19	174.000
380.54	173.700
380.90	174.600
381.25	176.900
381.61	174.100
381.96	174.700
382.32	173.900
382.67	173.300
383.03	173.900
383.38	175.200
383.74	173.700
384.09	175.100
384.45	173.100
384.80	175.900
385.16	172.700
385.51	174.100
385.87	173.600
386.22	174.200
386.58	173.000
386.93	174.000
387.29	173.800
387.64	172.700
388.00	174.400
388.35	173.500
388.70	176.000
389.06	173.200
389.41	173.400
389.77	174.300
390.12	172.900
390.48	174.300
390.83	173.000
391.19	173.000
391.54	173.600
391.89	173.000
392.25	172.300
392.60	174.500
392.96	174.200
393.31	173.400
393.66	173.800
394.02	172.700
394.37	172.400
394.73	173.800
395.08	173.700
395.43	172.500
395.79	173.200
396.14	173.700
396.50	174.200
396.85	173.400
397.20	172.200
397.56	174.600
397.91	174.100
398.26	172.600
398.62	171.900
398.97	173.500
399.32	173.100
399.68	172.900
400.03	174.300
400.38	172.900
400.74	170.900
401.09	173.300
401.44	174.600
401.80	173.400
402.15	173.400
402.50	172.200
402.86	172.500
403.21	172.600
403.56	173.900
403.92	174.000
404.27	173.900
404.62	173.600
404.98	174.700
405.33	173.100
405.68	174.100
406.03	172.400
406.39	174.100
406.74	173.300
407.09	173.000
407.44	174.500
407.80	173.900
408.15	173.600
408.50	177.000
408.86	174.300
409.21	174.800
409.56	175.300
409.91	174.600
410.27	175.000
410.62	175.500
410.97	173.800
411.32	173.800
411.67	172.900
412.03	173.900
412.38	174.300
412.73	173.700
413.08	175.000
413.44	175.200
413.79	175.000
414.14	174.700
414.49	175.100
414.84	172.200
415.20	176.800
415.55	174.900
415.90	173.000
416.25	175.400
416.60	175.700
416.95	175.700
417.31	176.700
417.66	175.100
418.01	176.200
418.36	177.500
418.71	177.800
419.06	178.700
419.42	178.500
419.77	176.800
420.12	178.000
420.47	179.700
420.82	179.400
421.17	179.600
421.52	179.000
421.88	180.300
422.23	180.300
422.58	180.700
422.93	181.500
423.28	183.200
423.63	182.100
423.98	181.900
424.33	185.100
424.69	184.000
425.04	185.800
425.39	186.500
425.74	189.200
426.09	190.000
426.44	188.800
426.79	191.700
427.14	194.200
427.49	195.100
427.84	196.900
428.19	196.200
428.54	198.000
428.89	199.200
429.25	203.800
429.60	206.500
429.95	208.200
430.30	211.000
430.65	213.700
431.00	216.700
431.35	219.400
431.70	224.400
432.05	225.100
432.40	229.200
432.75	233.900
433.10	239.700
433.45	242.900
433.80	246.900
434.15	252.700
434.50	258.100
434.85	263.200
435.20	271.200
435.55	278.400
435.90	283.800
436.25	292.300
436.60	302.900
436.95	310.700
437.30	322.200
437.65	333.300
438.00	337.300
438.35	347.400
438.70	365.600
439.05	375.100
439.40	393.600
439.75	406.700
440.10	415.700
440.44	437.200
440.79	450.800
441.14	475.700
441.49	490.800
441.84	509.800
442.19	532.700
442.54	551.700
442.89	569.800
443.24	610.500
443.59	640.500
443.94	678.000
444.29	692.800
444.64	732.000
444.98	774.200
445.33	813.300
445.68	844.400
446.03	902.000
446.38	933.100
446.73	989.400
447.08	1006.400
447.43	1082.900
447.78	1147.900
448.12	1205.900
448.47	1259.800
448.82	1339.500
449.17	1393.700
449.52	1457.300
449.87	1508.200
450.21	1587.800
450.56	1594.300
450.91	1747.000
451.26	1775.500
451.61	1839.500
451.96	1858.700
452.30	1937.100
452.65	2049.800
453.00	2086.800
453.35	2122.400
453.70	2218.800
454.05	2169.400
454.39	2238.900
454.74	2382.200
455.09	2364.700
455.44	2407.000
455.79	2422.700
456.13	2407.600
456.48	2415.400
456.83	2405.300
457.18	2452.100
457.52	2436.900
457.87	2435.300
458.22	2355.200
458.57	2389.600
458.91	2349.500
459.26	2323.300
459.61	2255.500
459.96	2283.700
460.30	2212.400
460.65	2176.900
461.00	2119.000
461.35	2102.700
461.69	2032.900
462.04	1939.700
462.39	1871.900
462.73	1843.800
463.08	1799.700
463.43	1771.200
463.78	1685.500
464.12	1617.200
464.47	1594.900
464.82	1591.500
465.16	1528.500
465.51	1497.000
465.86	1467.800
466.20	1414.900
466.55	1367.300
466.90	1337.900
467.24	1326.500
467.59	1271.000
467.94	1217.200
468.28	1197.400
468.63	1207.500
468.98	1160.700
469.32	1104.000
469.67	1124.000
470.02	1072.100
470.36	1046.100
470.71	1039.200
471.06	1034.600
471.40	993.200
471.75	994.200
472.09	949.000
472.44	942.200
472.79	921.100
473.13	908.700
473.48	873.400
473.82	850.600
474.17	837.300
474.52	819.400
474.86	792.300
475.21	785.600
475.55	756.700
475.90	738.200
476.25	724.700
476.59	713.900
476.94	690.000
477.28	675.600
477.63	653.200
477.97	638.900
478.32	629.700
478.66	608.900
479.01	591.900
479.35	582.100
479.70	566.700
480.05	554.000
480.39	538.400
480.74	531.500
481.08	518.000
481.43	505.400
481.77	492.800
482.12	482.600
482.46	473.500
482.81	466.000
483.15	455.200
483.50	443.800
483.84	440.600
484.19	430.700
484.53	421.700
484.88	419.000
485.22	409.600
485.57	405.200
485.91	395.700
486.25	389.600
486.60	383.000
486.94	379.000
487.29	374.500
487.63	368.900
487.98	361.800
488.32	362.000
488.67	353.300
489.01	348.100
489.36	341.000
489.70	342.900
490.04	332.400
490.39	330.600
490.73	328.900
491.08	323.700
491.42	320.000
491.76	312.200
492.11	305.600
492.45	302.200
492.80	301.300
493.14	294.100
493.48	290.900
493.83	285.800
494.17	282.500
494.52	281.100
494.86	276.800
495.20	273.000
495.55	270.600
495.89	267.200
496.23	263.400
496.58	259.200
496.92	258.900
497.26	254.900
497.61	251.500
497.95	248.400
498.29	246.800
498.64	244.600
498.98	241.800
499.32	239.400
499.67	236.200
500.01	232.700
500.35	234.000
500.70	230.700
501.04	228.600
501.38	227.100
501.73	221.900
502.07	221.300
502.41	221.000
502.75	218.700
503.10	217.900
503.44	217.100
503.78	215.300
504.12	215.100
504.47	213.300
504.81	209.600
505.15	209.000
505.50	208.200
505.84	207.200
506.18	207.800
506.52	204.700
506.87	204.600
507.21	204.800
507.55	201.400
507.89	202.700
508.23	201.400
508.58	200.600
508.92	200.500
509.26	196.400
509.60	198.400
509.94	196.400
510.29	198.200
510.63	194.800
510.97	194.100
511.31	193.100
511.65	192.700
512.00	193.100
512.34	192.000
512.68	190.900
513.02	192.100
513.36	192.900
513.70	188.200
514.05	189.300
514.39	186.900
514.73	186.700
515.07	187.700
515.41	187.600
515.75	186.800
516.10	187.400
516.44	186.300
516.78	183.800
517.12	185.000
517.46	184.100
517.80	184.800
518.14	184.200
518.48	183.100
518.82	183.100
519.17	182.900
519.51	182.600
519.85	182.600
520.19	181.900
520.53	180.900
520.87	180.800
521.21	180.000
521.55	181.200
521.89	179.500
522.23	179.600
522.57	181.600
522.91	178.500
523.25	180.700
523.60	179.400
523.94	179.200
524.28	179.100
524.62	177.900
524.96	179.300
525.30	177.600
525.64	177.600
525.98	176.900
526.32	181.700
526.66	177.600
527.00	178.100
527.34	177.700
527.68	176.300
528.02	178.500
528.36	178.200
528.70	178.600
529.04	178.000
529.38	178.900
529.72	178.400
530.06	176.500
530.40	177.100
530.74	177.100
531.08	177.600
531.42	175.400
531.76	177.900
532.10	176.400
532.43	176.500
532.77	175.400
533.11	177.300
533.45	175.700
533.79	174.700
534.13	176.700
534.47	176.700
534.81	176.400
535.15	176.800
535.49	176.400
535.83	175.100
536.17	175.200
536.51	175.600
536.84	175.400
537.18	175.400
537.52	177.400
537.86	175.800
538.20	175.300
538.54	175.600
538.88	175.500
539.22	178.200
539.56	176.300
539.89	175.600
540.23	174.200
540.57	175.900
540.91	174.800
541.25	176.500
541.59	176.300
541.92	174.100
542.26	175.200
542.60	175.800
542.94	174.300
543.28	174.300
543.62	175.000
543.95	175.100
544.29	175.000
544.63	174.300
544.97	176.100
545.31	173.400
545.64	173.800
545.98	173.700
546.32	174.300
546.66	173.700
547.00	175.100
547.33	173.400
547.67	181.000
548.01	175.500
548.35	173.800
548.68	174.100
549.02	174.300
549.36	173.700
549.70	176.700
550.03	174.500
550.37	174.300
550.71	173.700
551.05	174.300
551.38	175.800
551.72	174.400
552.06	174.000
552.40	173.200
552.73	172.600
553.07	174.400
553.41	174.800
553.74	174.300
554.08	174.900
554.42	175.100
554.75	173.800
555.09	173.900
555.43	174.400
555.77	175.100
556.10	173.000
556.44	171.500
556.78	175.600
557.11	174.100
557.45	173.900
557.78	175.500
558.12	173.500
558.46	172.900
558.79	173.800
559.13	173.100
559.47	174.500
559.80	175.300
560.14	173.400
560.48	174.800
560.81	172.800
561.15	174.900
561.48	173.600
561.82	175.900
562.16	172.700
562.49	174.100
562.83	173.200
563.16	174.300
563.50	174.000
563.84	173.700
564.17	173.400
564.51	172.600
564.84	174.300
565.18	174.300
565.51	175.500
565.85	174.700
566.19	172.500
566.52	172.300
566.86	173.000
567.19	174.600
567.53	174.600
567.86	173.400
568.20	174.200
568.53	175.500
568.87	172.700
569.20	173.300
569.54	173.800
569.87	172.900
570.21	174.100
570.54	175.400
570.88	175.600
571.21	172.100
571.55	173.700
571.88	172.300
572.22	173.800
572.55	174.300
572.89	174.100
573.22	174.400
573.56	176.900
573.89	173.000
574.23	173.100
574.56	172.900
574.89	174.400
575.23	173.800
575.56	174.300
575.90	175.200
576.23	172.900
576.57	172.300
576.90	176.400
577.23	174.300
577.57	173.000
577.90	173.500
578.24	172.200
578.57	174.900
578.91	173.700
579.24	173.200
579.57	173.600
579.91	173.400
580.24	174.500
580.57	171.800
580.91	173.800
581.24	172.700
581.58	171.800
581.91	172.800
582.24	173.300
582.58	174.700
582.91	174.200
583.24	172.600
583.58	173.000
583.91	175.000
584.24	173.500
584.58	173.200
584.91	175.100
585.24	173.000
585.58	174.300
585.91	173.400
586.24	174.000
586.58	173.600
586.91	174.100
587.24	173.800
587.57	172.700
587.91	175.000
588.24	173.500
588.57	173.600
588.91	174.300
589.24	176.300
589.57	173.500
589.90	174.000
590.24	172.000
590.57	172.500
590.90	173.100
591.23	173.800
591.57	173.500
591.90	173.200
592.23	172.600
592.56	172.200
592.90	172.600
593.23	173.600
593.56	173.200
593.89	173.000
594.22	172.600
594.56	173.300
594.89	174.200
595.22	171.300
595.55	172.400
595.88	172.900
596.22	172.800
596.55	172.500
596.88	174.000
597.21	174.200
597.54	173.400
597.87	172.900
598.21	172.600
598.54	173.000
598.87	173.200
599.20	173.600
599.53	172.500
599.86	173.700
600.19	173.200
600.53	175.100
600.86	172.700
601.19	172.700
601.52	173.400
601.85	172.900
602.18	173.500
602.51	174.100
602.84	174.400
603.17	174.600
603.50	174.000
603.84	172.100
604.17	176.100
604.50	172.800
604.83	174.900
605.16	173.100
605.49	173.100
605.82	173.500
606.15	173.200
606.48	174.600
606.81	172.600
607.14	172.700
607.47	172.900
607.80	173.300
608.13	172.500
608.46	172.400
608.79	171.900
609.12	174.200
609.45	173.800
609.78	174.000
610.11	172.200
610.44	173.700
610.77	173.200
611.10	173.300
611.43	172.700
611.76	173.000
612.09	173.200
612.42	176.300
612.75	173.200
613.08	173.400
613.41	173.700
613.74	173.400
614.07	174.400
614.40	173.600
614.73	173.100
615.06	174.500
615.39	173.000
615.72	173.800
616.05	173.700
616.38	172.300
616.71	173.900
617.04	173.500
617.37	174.900
617.69	174.900
618.02	172.200
618.35	173.700
618.68	172.300
619.01	174.800
619.34	172.300
619.67	172.800
620.00	174.600
620.33	174.700
620.65	173.100
620.98	172.400
621.31	172.700
621.64	173.100
621.97	173.000
622.30	175.600
622.63	172.700
622.95	172.500
623.28	174.500
623.61	171.200
623.94	172.400
624.27	174.200
624.60	174.500
624.92	172.000
625.25	174.000
625.58	173.100
625.91	173.200
626.24	174.900
626.56	172.700
626.89	172.800
627.22	173.100
627.55	172.600
627.87	172.600
628.20	172.500
628.53	173.000
628.86	173.000
629.19	173.400
629.51	172.400
629.84	172.900
630.17	172.800
630.50	173.200
630.82	171.900
631.15	174.300
631.48	172.400
631.80	174.000
632.13	174.200
632.46	174.300
632.79	173.100
633.11	173.000
633.44	173.200
633.77	174.300
634.09	171.800
634.42	175.400
634.75	171.200
635.08	171.900
635.40	172.300
635.73	172.500
636.06	173.000
636.38	173.000
636.71	172.300
637.04	174.700
637.36	171.900
637.69	174.900
638.01	172.800
638.34	172.900
638.67	172.800
638.99	172.500
639.32	173.300
639.65	172.000
639.97	173.500
640.30	174.700
640.62	174.600
640.95	172.900
641.28	173.200
641.60	172.900
641.93	172.000
642.25	173.700
642.58	172.800
642.91	172.400
643.23	173.100
643.56	170.700
643.88	172.400
644.21	172.900
644.53	176.500
644.86	172.100
645.18	173.000
645.51	172.200
645.84	172.100
646.16	173.900
646.49	172.800
646.81	173.900
647.14	174.100
647.46	172.600
647.79	172.600
648.11	173.700
648.44	173.100
648.76	173.300
649.09	173.500
649.41	171.900
649.74	172.300
650.06	172.300
650.39	173.000
650.71	172.700
651.04	172.600
651.36	174.400
651.69	173.200
652.01	172.900
652.33	172.800
652.66	172.200
652.98	173.900
653.31	173.900
653.63	173.600
653.96	173.900
654.28	173.100
654.60	172.900
654.93	179.800
655.25	172.300
655.58	172.600
655.90	171.900
656.22	172.200
656.55	172.800
656.87	172.000
657.20	174.100
657.52	173.300
657.84	173.500
658.17	173.900
658.49	172.700
658.82	174.100
659.14	172.300
659.46	172.900
659.79	172.000
660.11	171.900
660.43	172.400
660.76	173.500
661.08	173.500
661.40	173.200
661.73	171.800
662.05	173.500
662.37	173.300
662.70	171.800
663.02	172.500
663.34	173.100
663.66	173.100
663.99	172.600
664.31	174.100
664.63	172.700
664.96	172.600
665.28	173.200
665.60	172.900
665.92	172.300
666.25	172.200
666.57	172.000
666.89	173.300
667.21	172.400
667.54	174.300
667.86	173.200
668.18	172.300
668.50	172.600
668.83	172.900
669.15	173.300
669.47	174.400
669.79	174.000
670.11	172.900
670.44	172.600
670.76	171.900
671.08	173.000
671.40	174.400
671.72	172.800
672.05	173.800
672.37	173.300
672.69	173.300
673.01	173.300
673.33	172.600
673.65	172.100
673.98	173.000
674.30	174.700
674.62	172.800
674.94	174.700
675.26	173.000
675.58	172.300
675.90	172.400
676.22	172.900
676.55	172.000
676.87	173.000
677.19	174.100
677.51	173.500
677.83	172.000
678.15	171.900
678.47	174.300
678.79	173.200
679.11	173.400
679.43	173.000
679.76	172.600
680.08	173.000
680.40	173.200
680.72	172.000
681.04	174.000
681.36	173.500
681.68	173.000
682.00	174.100
682.32	173.000
682.64	172.500
682.96	173.700
683.28	172.500
683.60	172.500
683.92	173.600
684.24	172.900
684.56	173.000
684.88	172.200
685.20	172.000
685.52	173.500
685.84	173.700
686.16	174.000
686.48	173.900
686.80	172.100
687.12	172.100
687.44	172.800
687.76	173.300
688.08	173.500
688.40	172.500
688.72	172.300
689.04	172.500
689.36	173.000
689.68	172.500
689.99	172.100
690.31	172.700
690.63	174.800
690.95	171.300
691.27	173.000
691.59	173.900
691.91	174.200
692.23	172.900
692.55	171.900
692.87	172.400
693.18	172.000
693.50	172.700
693.82	173.200
694.14	172.900
694.46	172.500
694.78	172.400
695.10	173.000
695.41	170.600
695.73	171.400
696.05	173.300
696.37	172.500
696.69	173.600
697.01	171.800
697.32	173.700
697.64	174.100
697.96	172.200
698.28	171.800
698.60	174.500
698.92	175.300
699.23	174.300
699.55	173.700
699.87	175.000
700.19	172.900
700.50	173.500
700.82	172.600
701.14	171.400
701.46	171.800
701.78	172.600
702.09	171.700
702.41	172.400
702.73	171.600
703.04	172.800
703.36	172.000
703.68	174.300
704.00	171.800
704.31	172.400
704.63	172.700
704.95	172.100
705.27	173.200
705.58	172.900
705.90	172.300
706.22	172.800
706.53	172.000
706.85	172.500
707.17	172.300
707.48	173.000
707.80	173.700
708.12	173.600
708.43	173.300
708.75	171.000
709.07	172.200
709.38	172.400
709.70	173.600
710.02	171.300
710.33	173.700
710.65	172.600
710.96	172.400
711.28	171.600
711.60	171.100
711.91	172.900
712.23	174.100
712.54	172.000
712.86	172.900
713.18	172.600
713.49	172.600
713.81	172.500
714.12	173.800
714.44	171.900
714.76	172.800
715.07	172.800
715.39	174.100
715.70	173.100
716.02	172.800
716.33	174.600
716.65	172.100
716.96	174.500
717.28	172.300
717.59	172.500
717.91	171.500
718.22	172.400
718.54	172.900
718.86	172.000
719.17	173.500
719.49	172.900
719.80	172.500
720.11	171.700
720.43	172.300
720.74	174.300
721.06	172.200
721.37	173.200
721.69	172.100
722.00	171.800
722.32	171.800
722.63	172.700
722.95	171.800
723.26	172.300
723.58	172.800
723.89	172.000
724.20	173.400
724.52	172.600
724.83	173.600
725.15	174.200
725.46	175.000
725.77	171.400
726.09	171.900
726.40	173.200
726.72	173.500
727.03	172.800
727.34	173.200
727.66	171.900
727.97	174.800
728.29	172.400
728.60	172.800
728.91	172.000
729.23	173.000
729.54	174.100
729.85	173.600
730.17	172.000
730.48	172.700
730.79	172.600
731.11	173.500
731.42	173.400
731.73	172.600
732.05	173.100
732.36	171.900
732.67	173.900
732.98	174.400
733.30	172.600
733.61	174.400
733.92	172.200
734.24	172.500
734.55	173.700
734.86	173.400
735.17	174.900
735.49	173.100
735.80	173.400
736.11	173.100
736.42	172.300
736.74	173.300
737.05	172.900
737.36	172.400
737.67	172.700
737.98	171.200
738.30	172.900
738.61	173.300
738.92	176.000
739.23	173.200
739.54	172.800
739.86	172.400
740.17	174.400
740.48	172.200
740.79	173.700
741.10	171.500
741.42	173.000
741.73	173.500
742.04	172.000
742.35	171.100
742.66	172.500
742.97	172.600
743.28	173.800
743.60	172.800
743.91	173.100
744.22	173.100
744.53	173.200
744.84	171.800
745.15	172.300
745.46	171.800
745.77	173.400
746.08	173.500
746.40	172.100
746.71	172.800
747.02	171.800
747.33	173.600
747.64	173.200
747.95	172.400
748.26	173.200
748.57	172.800
748.88	172.800
749.19	174.500
749.50	173.700
749.81	172.800
750.12	172.600
750.43	173.600
750.74	174.900
751.05	171.600
751.36	177.000
751.67	173.100
751.98	172.500
752.29	171.700
752.60	175.200
752.91	173.000
753.22	174.900
753.53	172.600
753.84	172.900
754.15	171.200
754.46	172.800
754.77	172.600
755.08	171.300
755.39	173.400
755.70	172.600
756.01	172.500
756.32	173.400
756.63	172.800
756.94	171.700
757.25	173.900
757.56	174.200
757.86	172.100
758.17	173.400
758.48	172.300
758.79	173.800
759.10	171.100
759.41	172.800
759.72	173.100
760.03	172.500
760.34	173.200
760.64	172.900
760.95	176.100
