OOIBase32 Version 2.0.6.5 Data File
++++++++++++++++++++++++++++++++++++
Date: 05-07-2014, 16:18:11
User: Valued Ocean Optics Customer
Spectrometer Serial Number: 
Spectrometer Channel: Master
Integration Time (msec): 100
Spectra Averaged: 10
Boxcar Smoothing: 0
Correct for Electrical Dark: Disabled
Time Normalized: Disabled
Dual-beam Reference: Disabled
Reference Channel: Master
Temperature: Not acquired
Spectrometer Type: S2000
ADC Type: USB2000
Number of Pixels in File: 2048
Graph Title: 
>>>>>Begin Spectral Data<<<<<
355.95	0.000
356.31	172.900
356.67	174.600
357.03	174.900
357.38	176.700
357.74	182.400
358.10	176.800
358.45	178.600
358.81	184.100
359.17	178.500
359.53	179.400
359.88	181.400
360.24	180.400
360.60	180.100
360.95	180.500
361.31	178.400
361.67	181.800
362.03	182.900
362.38	183.200
362.74	181.200
363.10	179.800
363.45	180.400
363.81	180.800
364.17	181.000
364.52	181.000
364.88	187.600
365.24	179.700
365.59	180.100
365.95	180.700
366.31	180.400
366.66	181.100
367.02	181.800
367.38	185.800
367.73	183.800
368.09	180.900
368.45	181.900
368.80	181.400
369.16	182.600
369.51	180.700
369.87	183.300
370.23	181.300
370.58	181.400
370.94	181.300
371.30	182.100
371.65	183.000
372.01	180.500
372.36	182.000
372.72	182.200
373.08	182.900
373.43	188.600
373.79	182.300
374.14	181.500
374.50	181.400
374.85	181.800
375.21	182.900
375.57	180.600
375.92	181.800
376.28	182.800
376.63	182.800
376.99	182.300
377.34	180.800
377.70	181.400
378.06	182.100
378.41	180.300
378.77	183.400
379.12	183.100
379.48	181.700
379.83	184.100
380.19	182.300
380.54	181.400
380.90	182.700
381.25	184.500
381.61	181.500
381.96	182.100
382.32	182.100
382.67	183.800
383.03	182.000
383.38	186.300
383.74	184.400
384.09	181.100
384.45	181.900
384.80	182.300
385.16	180.200
385.51	182.600
385.87	181.500
386.22	182.500
386.58	182.100
386.93	183.400
387.29	180.400
387.64	182.200
388.00	180.800
388.35	181.300
388.70	184.100
389.06	180.500
389.41	181.300
389.77	181.800
390.12	181.200
390.48	181.300
390.83	180.900
391.19	181.400
391.54	182.200
391.89	179.900
392.25	181.500
392.60	180.700
392.96	180.000
393.31	182.100
393.66	180.900
394.02	181.300
394.37	180.100
394.73	181.500
395.08	180.400
395.43	180.600
395.79	180.000
396.14	182.100
396.50	180.800
396.85	180.000
397.20	179.800
397.56	179.900
397.91	181.500
398.26	179.300
398.62	180.700
398.97	180.000
399.32	178.900
399.68	179.400
400.03	180.800
400.38	182.000
400.74	179.600
401.09	180.600
401.44	179.700
401.80	180.200
402.15	181.500
402.50	181.800
402.86	181.900
403.21	180.100
403.56	182.200
403.92	180.700
404.27	180.900
404.62	182.400
404.98	181.800
405.33	180.900
405.68	180.100
406.03	180.300
406.39	179.900
406.74	180.300
407.09	181.800
407.44	181.200
407.80	181.200
408.15	181.000
408.50	185.600
408.86	180.500
409.21	180.900
409.56	180.100
409.91	182.400
410.27	181.500
410.62	182.200
410.97	180.900
411.32	183.100
411.67	181.000
412.03	181.600
412.38	181.100
412.73	181.200
413.08	181.800
413.44	180.700
413.79	180.900
414.14	182.100
414.49	181.900
414.84	181.400
415.20	185.700
415.55	183.300
415.90	181.200
416.25	180.900
416.60	182.900
416.95	181.200
417.31	182.800
417.66	182.100
418.01	180.900
418.36	182.000
418.71	183.400
419.06	182.100
419.42	184.100
419.77	180.400
420.12	181.300
420.47	185.000
420.82	182.000
421.17	182.800
421.52	181.500
421.88	180.400
422.23	181.200
422.58	181.500
422.93	181.100
423.28	182.500
423.63	181.800
423.98	180.600
424.33	181.600
424.69	180.800
425.04	182.600
425.39	180.700
425.74	182.700
426.09	184.300
426.44	181.100
426.79	181.100
427.14	185.200
427.49	183.400
427.84	180.900
428.19	183.300
428.54	182.000
428.89	182.500
429.25	184.000
429.60	180.200
429.95	180.800
430.30	180.500
430.65	181.500
431.00	181.200
431.35	181.900
431.70	181.700
432.05	180.800
432.40	181.000
432.75	181.900
433.10	183.200
433.45	180.900
433.80	181.100
434.15	180.100
434.50	181.600
434.85	180.700
435.20	182.000
435.55	181.100
435.90	182.100
436.25	183.200
436.60	182.500
436.95	181.600
437.30	181.500
437.65	182.900
438.00	182.200
438.35	182.700
438.70	181.900
439.05	181.600
439.40	182.100
439.75	183.200
440.10	182.300
440.44	181.600
440.79	181.700
441.14	182.900
441.49	182.200
441.84	180.600
442.19	182.600
442.54	181.400
442.89	183.200
443.24	182.900
443.59	181.900
443.94	183.000
444.29	183.000
444.64	181.900
444.98	181.600
445.33	184.000
445.68	183.600
446.03	183.200
446.38	182.900
446.73	182.200
447.08	182.000
447.43	183.300
447.78	183.400
448.12	183.000
448.47	182.300
448.82	182.500
449.17	183.400
449.52	183.300
449.87	182.600
450.21	184.400
450.56	181.800
450.91	180.800
451.26	182.600
451.61	183.800
451.96	182.500
452.30	185.200
452.65	182.400
453.00	183.700
453.35	185.500
453.70	183.400
454.05	182.600
454.39	185.100
454.74	184.200
455.09	184.500
455.44	183.800
455.79	184.000
456.13	186.100
456.48	184.300
456.83	184.100
457.18	184.200
457.52	184.300
457.87	185.500
458.22	185.100
458.57	184.500
458.91	186.700
459.26	184.700
459.61	186.000
459.96	185.900
460.30	189.400
460.65	191.300
461.00	186.400
461.35	186.800
461.69	187.000
462.04	185.900
462.39	186.500
462.73	185.500
463.08	187.300
463.43	187.900
463.78	186.600
464.12	185.400
464.47	185.600
464.82	187.700
465.16	190.600
465.51	187.700
465.86	188.700
466.20	188.400
466.55	189.200
466.90	187.200
467.24	188.300
467.59	190.900
467.94	193.600
468.28	189.100
468.63	189.400
468.98	189.700
469.32	191.100
469.67	191.300
470.02	190.200
470.36	192.300
470.71	191.600
471.06	192.900
471.40	191.800
471.75	193.600
472.09	195.300
472.44	196.100
472.79	195.000
473.13	196.100
473.48	198.700
473.82	197.500
474.17	198.700
474.52	196.800
474.86	200.100
475.21	199.700
475.55	202.500
475.90	200.500
476.25	202.600
476.59	202.500
476.94	204.800
477.28	207.500
477.63	205.800
477.97	210.600
478.32	209.100
478.66	213.000
479.01	212.100
479.35	214.400
479.70	214.900
480.05	216.600
480.39	217.900
480.74	220.300
481.08	222.200
481.43	223.300
481.77	225.000
482.12	230.600
482.46	230.900
482.81	234.100
483.15	235.400
483.50	237.600
483.84	240.100
484.19	244.400
484.53	245.400
484.88	250.800
485.22	254.100
485.57	258.100
485.91	257.800
486.25	263.600
486.60	267.600
486.94	271.900
487.29	280.900
487.63	279.900
487.98	285.800
488.32	292.000
488.67	296.000
489.01	302.100
489.36	305.600
489.70	313.700
490.04	315.300
490.39	322.300
490.73	332.300
491.08	339.500
491.42	345.900
491.76	350.900
492.11	359.900
492.45	370.300
492.80	375.500
493.14	385.800
493.48	394.400
493.83	400.800
494.17	410.300
494.52	420.100
494.86	432.800
495.20	443.300
495.55	457.600
495.89	464.700
496.23	476.800
496.58	484.700
496.92	502.000
497.26	512.400
497.61	528.000
497.95	540.200
498.29	553.700
498.64	571.700
498.98	583.200
499.32	603.500
499.67	618.000
500.01	635.400
500.35	649.100
500.70	669.700
501.04	685.900
501.38	706.900
501.73	722.900
502.07	747.700
502.41	765.200
502.75	781.800
503.10	805.700
503.44	818.400
503.78	851.000
504.12	875.000
504.47	894.000
504.81	921.000
505.15	944.700
505.50	972.600
505.84	990.200
506.18	1022.000
506.52	1049.400
506.87	1068.800
507.21	1097.800
507.55	1121.200
507.89	1148.700
508.23	1178.100
508.58	1216.100
508.92	1237.000
509.26	1256.300
509.60	1292.100
509.94	1320.900
510.29	1348.300
510.63	1384.000
510.97	1412.400
511.31	1444.400
511.65	1467.900
512.00	1499.200
512.34	1527.300
512.68	1560.100
513.02	1573.400
513.36	1604.200
513.70	1632.800
514.05	1666.700
514.39	1681.700
514.73	1705.000
515.07	1739.800
515.41	1761.500
515.75	1785.200
516.10	1814.700
516.44	1826.000
516.78	1848.000
517.12	1868.700
517.46	1876.900
517.80	1905.200
518.14	1912.000
518.48	1930.100
518.82	1954.700
519.17	1963.000
519.51	1965.800
519.85	1986.900
520.19	1992.300
520.53	2004.700
520.87	2003.400
521.21	2022.300
521.55	2023.300
521.89	2034.500
522.23	2033.400
522.57	2038.000
522.91	2040.700
523.25	2038.500
523.60	2047.400
523.94	2032.300
524.28	2032.700
524.62	2040.400
524.96	2019.700
525.30	2020.500
525.64	2015.900
525.98	2004.800
526.32	2014.500
526.66	1993.200
527.00	1999.000
527.34	1987.000
527.68	1973.800
528.02	1961.700
528.36	1958.100
528.70	1937.900
529.04	1931.900
529.38	1923.000
529.72	1921.700
530.06	1903.600
530.40	1882.600
530.74	1858.700
531.08	1855.300
531.42	1848.000
531.76	1829.600
532.10	1819.000
532.43	1810.500
532.77	1795.300
533.11	1788.400
533.45	1773.600
533.79	1753.500
534.13	1735.700
534.47	1728.000
534.81	1705.900
535.15	1702.700
535.49	1683.500
535.83	1657.100
536.17	1654.900
536.51	1642.100
536.84	1609.000
537.18	1601.700
537.52	1594.800
537.86	1568.000
538.20	1557.100
538.54	1543.000
538.88	1530.400
539.22	1518.900
539.56	1491.300
539.89	1469.200
540.23	1463.200
540.57	1444.600
540.91	1424.400
541.25	1404.400
541.59	1388.400
541.92	1371.300
542.26	1357.700
542.60	1341.700
542.94	1317.700
543.28	1303.200
543.62	1299.500
543.95	1263.300
544.29	1251.500
544.63	1233.200
544.97	1224.000
545.31	1203.800
545.64	1193.800
545.98	1170.000
546.32	1152.400
546.66	1137.300
547.00	1123.000
547.33	1105.600
547.67	1101.400
548.01	1072.100
548.35	1061.300
548.68	1044.500
549.02	1028.000
549.36	1016.600
549.70	1006.800
550.03	982.000
550.37	966.100
550.71	952.100
551.05	950.600
551.38	924.700
551.72	916.600
552.06	904.600
552.40	888.000
552.73	875.200
553.07	865.200
553.41	851.800
553.74	840.600
554.08	829.700
554.42	815.200
554.75	802.800
555.09	794.300
555.43	786.200
555.77	771.400
556.10	759.700
556.44	746.600
556.78	738.200
557.11	729.400
557.45	721.000
557.78	718.100
558.12	702.600
558.46	693.400
558.79	683.400
559.13	680.800
559.47	666.800
559.80	663.400
560.14	647.200
560.48	638.000
560.81	629.400
561.15	624.300
561.48	614.000
561.82	616.600
562.16	600.800
562.49	592.400
562.83	582.900
563.16	579.500
563.50	568.500
563.84	561.900
564.17	557.600
564.51	550.000
564.84	543.600
565.18	540.000
565.51	530.900
565.85	524.300
566.19	515.600
566.52	509.400
566.86	508.600
567.19	499.600
567.53	497.000
567.86	487.800
568.20	480.200
568.53	476.900
568.87	473.300
569.20	466.800
569.54	459.800
569.87	458.500
570.21	450.700
570.54	444.800
570.88	441.600
571.21	434.700
571.55	430.500
571.88	424.000
572.22	421.500
572.55	419.800
572.89	412.900
573.22	406.400
573.56	410.200
573.89	401.200
574.23	394.300
574.56	393.000
574.89	386.200
575.23	382.600
575.56	379.700
575.90	374.400
576.23	373.000
576.57	366.000
576.90	371.100
577.23	363.400
577.57	360.900
577.90	354.700
578.24	351.500
578.57	345.200
578.91	345.000
579.24	341.600
579.57	341.800
579.91	333.500
580.24	331.900
580.57	329.800
580.91	326.200
581.24	323.900
581.58	319.400
581.91	315.600
582.24	314.400
582.58	313.900
582.91	309.800
583.24	304.700
583.58	303.100
583.91	301.200
584.24	300.300
584.58	297.000
584.91	293.600
585.24	289.800
585.58	290.700
585.91	286.800
586.24	286.400
586.58	284.200
586.91	280.700
587.24	280.200
587.57	276.200
587.91	274.200
588.24	271.100
588.57	268.900
588.91	267.600
589.24	269.700
589.57	262.400
589.90	264.000
590.24	262.700
590.57	259.800
590.90	257.200
591.23	258.000
591.57	255.800
591.90	254.400
592.23	255.000
592.56	249.700
592.90	251.100
593.23	247.100
593.56	246.700
593.89	247.200
594.22	244.600
594.56	243.900
594.89	241.800
595.22	242.000
595.55	239.000
595.88	237.700
596.22	237.500
596.55	237.300
596.88	236.300
597.21	235.600
597.54	232.400
597.87	231.400
598.21	230.300
598.54	230.100
598.87	227.800
599.20	227.500
599.53	229.100
599.86	223.700
600.19	225.100
600.53	225.600
600.86	223.700
601.19	221.900
601.52	221.700
601.85	219.600
602.18	219.000
602.51	219.300
602.84	218.000
603.17	219.600
603.50	218.800
603.84	215.300
604.17	218.200
604.50	214.400
604.83	214.900
605.16	214.700
605.49	214.300
605.82	212.000
606.15	210.200
606.48	211.000
606.81	209.100
607.14	210.000
607.47	210.700
607.80	209.500
608.13	204.700
608.46	208.100
608.79	207.100
609.12	205.900
609.45	208.200
609.78	205.400
610.11	204.800
610.44	204.200
610.77	203.600
611.10	203.800
611.43	204.000
611.76	204.000
612.09	201.500
612.42	208.100
612.75	202.600
613.08	203.000
613.41	202.200
613.74	201.300
614.07	201.600
614.40	198.800
614.73	200.800
615.06	198.100
615.39	199.800
615.72	201.200
616.05	196.600
616.38	198.600
616.71	199.000
617.04	198.200
617.37	201.500
617.69	197.200
618.02	195.700
618.35	197.600
618.68	196.500
619.01	196.900
619.34	195.700
619.67	193.500
620.00	196.600
620.33	197.200
620.65	194.800
620.98	196.300
621.31	194.800
621.64	194.700
621.97	193.700
622.30	195.100
622.63	194.100
622.95	192.000
623.28	194.700
623.61	191.200
623.94	192.100
624.27	191.200
624.60	192.800
624.92	192.300
625.25	191.200
625.58	190.400
625.91	191.600
626.24	192.700
626.56	191.200
626.89	190.700
627.22	189.900
627.55	189.300
627.87	188.800
628.20	189.100
628.53	189.700
628.86	189.600
629.19	187.300
629.51	189.100
629.84	189.900
630.17	189.200
630.50	187.400
630.82	188.500
631.15	187.200
631.48	187.600
631.80	189.400
632.13	187.600
632.46	193.000
632.79	188.500
633.11	190.100
633.44	186.800
633.77	187.500
634.09	186.500
634.42	189.900
634.75	185.100
635.08	187.300
635.40	186.700
635.73	185.300
636.06	186.400
636.38	185.600
636.71	183.900
637.04	187.100
637.36	188.600
637.69	185.600
638.01	185.900
638.34	187.500
638.67	185.400
638.99	186.100
639.32	184.800
639.65	185.500
639.97	186.400
640.30	187.900
640.62	183.900
640.95	184.100
641.28	185.500
641.60	183.700
641.93	187.200
642.25	185.500
642.58	184.500
642.91	183.900
643.23	185.500
643.56	184.800
643.88	185.000
644.21	184.000
644.53	188.000
644.86	184.200
645.18	184.500
645.51	184.300
645.84	184.100
646.16	183.700
646.49	183.800
646.81	183.200
647.14	183.300
647.46	185.400
647.79	185.000
648.11	186.000
648.44	183.500
648.76	185.500
649.09	186.900
649.41	183.000
649.74	184.000
650.06	184.200
650.39	183.300
650.71	183.400
651.04	182.900
651.36	185.000
651.69	182.500
652.01	184.600
652.33	184.400
652.66	183.100
652.98	184.900
653.31	183.000
653.63	183.500
653.96	182.700
654.28	182.800
654.60	182.000
654.93	196.100
655.25	183.700
655.58	183.100
655.90	184.500
656.22	184.700
656.55	183.100
656.87	183.700
657.20	184.900
657.52	183.000
657.84	182.400
658.17	184.000
658.49	183.100
658.82	183.500
659.14	182.400
659.46	183.700
659.79	182.300
660.11	183.000
660.43	184.000
660.76	182.600
661.08	183.100
661.40	182.700
661.73	183.300
662.05	182.800
662.37	183.500
662.70	182.100
663.02	182.900
663.34	183.400
663.66	184.700
663.99	182.900
664.31	182.100
664.63	183.000
664.96	182.900
665.28	182.900
665.60	183.400
665.92	182.200
666.25	182.100
666.57	184.300
666.89	182.400
667.21	182.400
667.54	182.900
667.86	183.000
668.18	182.900
668.50	182.600
668.83	183.400
669.15	182.000
669.47	183.700
669.79	183.000
670.11	182.400
670.44	182.500
670.76	182.700
671.08	183.900
671.40	182.500
671.72	184.700
672.05	181.400
672.37	183.200
672.69	181.800
673.01	182.400
673.33	180.900
673.65	184.000
673.98	183.400
674.30	186.900
674.62	182.600
674.94	182.500
675.26	182.300
675.58	181.400
675.90	183.900
676.22	182.000
676.55	183.600
676.87	182.000
677.19	184.400
677.51	183.000
677.83	181.400
678.15	183.500
678.47	183.700
678.79	181.400
679.11	183.300
679.43	182.300
679.76	181.500
680.08	180.700
680.40	181.900
680.72	180.600
681.04	181.600
681.36	182.200
681.68	181.900
682.00	185.200
682.32	181.500
682.64	182.400
682.96	184.200
683.28	183.800
683.60	180.900
683.92	181.200
684.24	181.600
684.56	184.600
684.88	180.900
685.20	180.300
685.52	181.900
685.84	182.900
686.16	181.600
686.48	182.100
686.80	181.500
687.12	182.000
687.44	182.600
687.76	181.800
688.08	182.200
688.40	182.400
688.72	180.800
689.04	179.900
689.36	181.000
689.68	181.400
689.99	181.800
690.31	181.500
690.63	182.400
690.95	182.200
691.27	182.700
691.59	181.800
691.91	181.200
692.23	182.800
692.55	182.300
692.87	180.000
693.18	182.000
693.50	181.100
693.82	181.800
694.14	181.000
694.46	181.700
694.78	180.600
695.10	183.000
695.41	180.600
695.73	179.900
696.05	181.000
696.37	181.000
696.69	180.400
697.01	181.900
697.32	182.100
697.64	182.400
697.96	182.200
698.28	181.100
698.60	181.500
698.92	181.900
699.23	182.900
699.55	181.700
699.87	185.700
700.19	180.300
700.50	180.400
700.82	181.900
701.14	182.000
701.46	181.100
701.78	182.000
702.09	180.700
702.41	180.600
702.73	181.700
703.04	180.700
703.36	181.600
703.68	181.900
704.00	181.900
704.31	181.900
704.63	180.300
704.95	179.900
705.27	182.400
705.58	181.800
705.90	182.900
706.22	181.400
706.53	181.000
706.85	182.300
707.17	181.600
707.48	182.600
707.80	180.900
708.12	182.100
708.43	181.200
708.75	180.200
709.07	182.600
709.38	183.400
709.70	187.600
710.02	179.300
710.33	182.800
710.65	181.000
710.96	179.200
711.28	181.200
711.60	181.100
711.91	183.400
712.23	181.600
712.54	180.200
712.86	180.600
713.18	181.800
713.49	181.400
713.81	181.800
714.12	182.900
714.44	181.700
714.76	182.000
715.07	182.600
715.39	181.800
715.70	181.000
716.02	181.200
716.33	182.100
716.65	180.400
716.96	182.700
717.28	180.400
717.59	180.900
717.91	180.800
718.22	181.600
718.54	180.600
718.86	181.800
719.17	182.200
719.49	181.800
719.80	182.000
720.11	180.800
720.43	182.000
720.74	183.100
721.06	180.100
721.37	182.100
721.69	181.800
722.00	182.400
722.32	180.800
722.63	181.800
722.95	182.100
723.26	181.300
723.58	181.200
723.89	182.900
724.20	182.800
724.52	181.200
724.83	180.600
725.15	179.400
725.46	183.600
725.77	180.200
726.09	181.200
726.40	180.800
726.72	181.900
727.03	181.600
727.34	182.300
727.66	180.700
727.97	183.200
728.29	181.600
728.60	180.300
728.91	180.500
729.23	180.600
729.54	181.900
729.85	180.300
730.17	180.900
730.48	182.200
730.79	183.400
731.11	180.900
731.42	181.400
731.73	183.800
732.05	179.700
732.36	180.900
732.67	183.000
732.98	183.200
733.30	180.600
733.61	181.500
733.92	180.100
734.24	182.900
734.55	183.000
734.86	181.500
735.17	185.600
735.49	181.300
735.80	180.600
736.11	181.800
736.42	181.100
736.74	181.800
737.05	182.400
737.36	181.300
737.67	182.100
737.98	181.400
738.30	180.100
738.61	180.400
738.92	181.500
739.23	180.800
739.54	180.600
739.86	181.000
740.17	180.700
740.48	180.500
740.79	180.400
741.10	182.100
741.42	182.400
741.73	181.500
742.04	181.500
742.35	181.100
742.66	182.500
742.97	181.500
743.28	182.200
743.60	181.600
743.91	181.200
744.22	182.200
744.53	181.800
744.84	182.400
745.15	181.400
745.46	182.200
745.77	181.200
746.08	182.800
746.40	181.500
746.71	180.800
747.02	181.200
747.33	180.600
747.64	179.600
747.95	182.400
748.26	182.600
748.57	181.800
748.88	179.900
749.19	182.000
749.50	181.500
749.81	179.900
750.12	182.600
750.43	180.600
750.74	180.800
751.05	180.600
751.36	189.200
751.67	181.400
751.98	181.900
752.29	181.200
752.60	182.000
752.91	181.100
753.22	183.600
753.53	181.900
753.84	180.600
754.15	181.200
754.46	181.600
754.77	181.800
755.08	182.000
755.39	182.500
755.70	184.000
756.01	182.300
756.32	183.100
756.63	179.800
756.94	180.200
757.25	180.800
757.56	181.500
757.86	181.000
758.17	181.200
758.48	180.500
758.79	181.100
759.10	180.700
759.41	182.100
759.72	181.100
