OOIBase32 Version 2.0.6.5 Data File
++++++++++++++++++++++++++++++++++++
Date: 05-07-2014, 16:31:52
User: Valued Ocean Optics Customer
Spectrometer Serial Number: 
Spectrometer Channel: Master
Integration Time (msec): 100
Spectra Averaged: 10
Boxcar Smoothing: 0
Correct for Electrical Dark: Disabled
Time Normalized: Disabled
Dual-beam Reference: Disabled
Reference Channel: Master
Temperature: Not acquired
Spectrometer Type: S2000
ADC Type: USB2000
Number of Pixels in File: 2048
Graph Title: 
>>>>>Begin Spectral Data<<<<<
355.95	0.000
356.31	167.200
356.67	165.900
357.03	168.500
357.38	168.500
357.74	172.900
358.10	169.800
358.45	169.800
358.81	177.700
359.17	171.900
359.53	171.800
359.88	172.200
360.24	173.100
360.60	174.000
360.95	173.800
361.31	173.500
361.67	171.800
362.03	174.600
362.38	178.200
362.74	172.700
363.10	173.700
363.45	172.100
363.81	170.200
364.17	172.100
364.52	172.500
364.88	179.900
365.24	172.000
365.59	172.900
365.95	173.200
366.31	171.600
366.66	171.600
367.02	172.600
367.38	176.600
367.73	174.100
368.09	171.900
368.45	174.600
368.80	174.300
369.16	174.800
369.51	172.900
369.87	174.000
370.23	172.700
370.58	173.500
370.94	171.800
371.30	174.400
371.65	174.100
372.01	174.700
372.36	173.400
372.72	174.800
373.08	175.900
373.43	180.500
373.79	173.300
374.14	175.600
374.50	173.600
374.85	172.800
375.21	173.900
375.57	174.000
375.92	172.800
376.28	172.500
376.63	175.900
376.99	173.000
377.34	174.400
377.70	175.300
378.06	174.200
378.41	172.500
378.77	175.200
379.12	175.200
379.48	173.600
379.83	174.800
380.19	174.000
380.54	174.100
380.90	173.400
381.25	173.200
381.61	172.700
381.96	172.500
382.32	173.600
382.67	172.700
383.03	174.500
383.38	179.900
383.74	173.900
384.09	173.300
384.45	173.200
384.80	172.700
385.16	172.600
385.51	173.800
385.87	174.600
386.22	173.200
386.58	174.300
386.93	173.300
387.29	172.800
387.64	174.500
388.00	172.800
388.35	173.700
388.70	176.400
389.06	173.700
389.41	173.000
389.77	171.900
390.12	172.100
390.48	172.100
390.83	173.800
391.19	172.100
391.54	175.500
391.89	173.200
392.25	171.100
392.60	172.300
392.96	171.400
393.31	171.000
393.66	171.400
394.02	172.200
394.37	173.600
394.73	174.000
395.08	171.700
395.43	171.400
395.79	173.100
396.14	175.200
396.50	172.900
396.85	174.500
397.20	171.600
397.56	171.100
397.91	173.800
398.26	171.800
398.62	172.000
398.97	173.200
399.32	172.600
399.68	171.200
400.03	172.700
400.38	173.000
400.74	171.500
401.09	173.300
401.44	171.100
401.80	171.500
402.15	172.900
402.50	171.300
402.86	172.100
403.21	171.800
403.56	172.900
403.92	171.300
404.27	171.900
404.62	172.200
404.98	174.200
405.33	171.500
405.68	172.900
406.03	170.600
406.39	173.600
406.74	172.400
407.09	171.500
407.44	172.000
407.80	171.600
408.15	172.500
408.50	177.000
408.86	170.700
409.21	172.400
409.56	172.800
409.91	172.800
410.27	172.700
410.62	174.200
410.97	172.500
411.32	174.000
411.67	173.200
412.03	171.400
412.38	171.000
412.73	173.200
413.08	173.500
413.44	173.700
413.79	173.200
414.14	172.600
414.49	172.800
414.84	171.700
415.20	176.900
415.55	172.800
415.90	172.000
416.25	173.000
416.60	172.200
416.95	172.700
417.31	173.700
417.66	172.800
418.01	173.900
418.36	172.200
418.71	174.200
419.06	172.700
419.42	176.700
419.77	171.300
420.12	173.700
420.47	172.800
420.82	173.600
421.17	174.600
421.52	172.100
421.88	171.900
422.23	173.500
422.58	172.200
422.93	173.200
423.28	173.900
423.63	170.700
423.98	174.100
424.33	172.200
424.69	172.500
425.04	172.000
425.39	173.100
425.74	172.100
426.09	174.400
426.44	173.000
426.79	172.200
427.14	177.600
427.49	172.500
427.84	172.200
428.19	173.800
428.54	173.900
428.89	172.600
429.25	176.200
429.60	169.800
429.95	172.500
430.30	173.300
430.65	171.800
431.00	171.700
431.35	171.900
431.70	172.800
432.05	171.700
432.40	173.400
432.75	170.800
433.10	173.400
433.45	173.600
433.80	171.800
434.15	172.500
434.50	172.500
434.85	173.200
435.20	173.400
435.55	171.600
435.90	171.900
436.25	173.000
436.60	172.300
436.95	172.000
437.30	171.100
437.65	173.400
438.00	172.700
438.35	172.400
438.70	171.300
439.05	171.700
439.40	171.900
439.75	172.300
440.10	173.200
440.44	170.600
440.79	172.100
441.14	173.700
441.49	173.300
441.84	172.100
442.19	172.300
442.54	171.800
442.89	173.000
443.24	173.400
443.59	171.800
443.94	172.500
444.29	172.200
444.64	173.300
444.98	172.400
445.33	172.500
445.68	171.800
446.03	172.800
446.38	172.500
446.73	172.200
447.08	172.600
447.43	172.500
447.78	172.600
448.12	172.400
448.47	172.100
448.82	171.800
449.17	173.300
449.52	170.700
449.87	171.900
450.21	174.600
450.56	172.800
450.91	171.400
451.26	172.200
451.61	172.000
451.96	174.900
452.30	175.100
452.65	171.600
453.00	172.800
453.35	174.000
453.70	172.800
454.05	172.200
454.39	174.100
454.74	173.000
455.09	173.500
455.44	172.700
455.79	173.100
456.13	171.700
456.48	172.300
456.83	171.500
457.18	173.700
457.52	172.800
457.87	173.500
458.22	173.700
458.57	172.100
458.91	173.100
459.26	173.800
459.61	172.900
459.96	172.200
460.30	176.500
460.65	178.300
461.00	174.100
461.35	173.100
461.69	172.600
462.04	173.700
462.39	175.300
462.73	173.000
463.08	173.300
463.43	173.300
463.78	172.700
464.12	172.900
464.47	170.600
464.82	172.400
465.16	174.000
465.51	172.700
465.86	173.100
466.20	172.000
466.55	173.700
466.90	173.400
467.24	172.800
467.59	173.800
467.94	175.000
468.28	172.700
468.63	172.800
468.98	172.700
469.32	172.200
469.67	172.100
470.02	172.700
470.36	171.400
470.71	175.100
471.06	171.300
471.40	173.100
471.75	171.300
472.09	173.100
472.44	173.400
472.79	172.900
473.13	172.500
473.48	173.200
473.82	171.400
474.17	173.900
474.52	173.300
474.86	172.400
475.21	172.800
475.55	174.100
475.90	172.400
476.25	172.100
476.59	172.400
476.94	173.600
477.28	173.100
477.63	171.800
477.97	174.300
478.32	172.400
478.66	174.100
479.01	172.300
479.35	173.400
479.70	172.900
480.05	173.400
480.39	171.900
480.74	173.700
481.08	172.400
481.43	171.900
481.77	171.900
482.12	173.700
482.46	174.700
482.81	173.100
483.15	174.000
483.50	173.000
483.84	172.800
484.19	173.400
484.53	171.800
484.88	173.400
485.22	174.800
485.57	177.300
485.91	172.600
486.25	173.600
486.60	173.800
486.94	173.000
487.29	176.400
487.63	173.100
487.98	172.200
488.32	172.400
488.67	173.100
489.01	174.200
489.36	173.000
489.70	173.600
490.04	173.800
490.39	171.800
490.73	173.500
491.08	173.900
491.42	172.800
491.76	173.500
492.11	172.400
492.45	172.700
492.80	171.500
493.14	173.300
493.48	171.800
493.83	173.300
494.17	171.500
494.52	173.900
494.86	173.700
495.20	173.400
495.55	173.800
495.89	173.200
496.23	173.500
496.58	171.900
496.92	172.200
497.26	173.400
497.61	173.400
497.95	174.600
498.29	173.000
498.64	173.100
498.98	173.000
499.32	175.600
499.67	173.900
500.01	172.700
500.35	174.000
500.70	180.200
501.04	175.400
501.38	173.700
501.73	172.900
502.07	172.000
502.41	173.900
502.75	173.000
503.10	176.100
503.44	173.200
503.78	173.800
504.12	174.300
504.47	173.900
504.81	174.600
505.15	175.500
505.50	174.200
505.84	173.600
506.18	172.600
506.52	174.200
506.87	173.100
507.21	173.800
507.55	171.700
507.89	174.700
508.23	173.600
508.58	174.300
508.92	176.600
509.26	173.700
509.60	173.900
509.94	175.200
510.29	176.900
510.63	175.900
510.97	174.500
511.31	173.500
511.65	175.900
512.00	173.500
512.34	173.900
512.68	174.500
513.02	173.400
513.36	177.300
513.70	173.300
514.05	174.900
514.39	174.800
514.73	172.800
515.07	173.900
515.41	173.900
515.75	176.000
516.10	178.300
516.44	175.600
516.78	173.100
517.12	172.800
517.46	174.000
517.80	176.500
518.14	174.000
518.48	174.700
518.82	173.800
519.17	175.500
519.51	172.800
519.85	174.500
520.19	174.300
520.53	174.400
520.87	172.000
521.21	173.600
521.55	173.400
521.89	174.100
522.23	172.900
522.57	175.200
522.91	173.700
523.25	174.300
523.60	172.900
523.94	173.700
524.28	174.800
524.62	173.700
524.96	176.500
525.30	174.000
525.64	174.200
525.98	172.800
526.32	177.700
526.66	171.800
527.00	174.800
527.34	175.200
527.68	172.400
528.02	174.400
528.36	173.900
528.70	174.900
529.04	173.000
529.38	173.800
529.72	174.700
530.06	174.400
530.40	173.400
530.74	173.700
531.08	174.000
531.42	176.300
531.76	173.700
532.10	174.100
532.43	174.000
532.77	173.800
533.11	175.000
533.45	173.800
533.79	174.300
534.13	173.300
534.47	174.600
534.81	175.200
535.15	175.800
535.49	174.700
535.83	173.700
536.17	174.100
536.51	175.700
536.84	173.300
537.18	176.800
537.52	179.200
537.86	174.600
538.20	174.500
538.54	177.100
538.88	174.500
539.22	180.500
539.56	176.800
539.89	176.700
540.23	176.000
540.57	178.300
540.91	176.600
541.25	176.000
541.59	177.800
541.92	175.700
542.26	176.600
542.60	176.300
542.94	177.200
543.28	175.600
543.62	176.800
543.95	177.600
544.29	177.500
544.63	177.200
544.97	178.000
545.31	178.000
545.64	178.600
545.98	177.300
546.32	179.400
546.66	178.800
547.00	178.100
547.33	176.600
547.67	187.700
548.01	180.100
548.35	180.400
548.68	179.300
549.02	180.400
549.36	179.300
549.70	180.600
550.03	180.500
550.37	180.800
550.71	181.700
551.05	182.400
551.38	179.700
551.72	183.400
552.06	182.700
552.40	181.600
552.73	182.100
553.07	183.700
553.41	186.000
553.74	183.700
554.08	186.000
554.42	184.300
554.75	185.500
555.09	186.300
555.43	187.900
555.77	189.200
556.10	188.800
556.44	188.500
556.78	187.000
557.11	191.200
557.45	191.900
557.78	196.700
558.12	192.500
558.46	193.800
558.79	196.100
559.13	196.700
559.47	198.300
559.80	199.600
560.14	200.800
560.48	202.400
560.81	202.400
561.15	202.800
561.48	205.300
561.82	208.400
562.16	207.300
562.49	210.400
562.83	212.900
563.16	213.300
563.50	215.800
563.84	217.000
564.17	219.400
564.51	221.300
564.84	222.200
565.18	228.300
565.51	228.100
565.85	230.500
566.19	232.600
566.52	238.700
566.86	240.100
567.19	244.300
567.53	246.800
567.86	249.100
568.20	253.300
568.53	259.100
568.87	261.700
569.20	267.100
569.54	268.700
569.87	273.800
570.21	278.500
570.54	284.700
570.88	288.500
571.21	296.100
571.55	302.500
571.88	307.000
572.22	314.700
572.55	321.100
572.89	327.700
573.22	336.000
573.56	346.700
573.89	352.900
574.23	359.200
574.56	371.100
574.89	380.400
575.23	388.700
575.56	400.800
575.90	408.900
576.23	417.600
576.57	430.900
576.90	449.500
577.23	458.900
577.57	472.000
577.90	483.100
578.24	499.400
578.57	513.700
578.91	529.400
579.24	549.400
579.57	569.500
579.91	581.700
580.24	600.200
580.57	618.900
580.91	639.600
581.24	655.400
581.58	685.100
581.91	710.800
582.24	732.200
582.58	758.200
582.91	790.900
583.24	815.300
583.58	839.200
583.91	873.700
584.24	903.000
584.58	938.000
584.91	967.100
585.24	998.000
585.58	1041.800
585.91	1070.500
586.24	1120.400
586.58	1154.900
586.91	1192.400
587.24	1245.300
587.57	1288.700
587.91	1326.400
588.24	1373.000
588.57	1423.200
588.91	1469.100
589.24	1543.900
589.57	1592.600
589.90	1664.800
590.24	1718.900
590.57	1779.100
590.90	1848.800
591.23	1898.000
591.57	1975.900
591.90	2049.400
592.23	2131.900
592.56	2198.400
592.90	2267.800
593.23	2344.000
593.56	2415.200
593.89	2494.300
594.22	2565.200
594.56	2628.700
594.89	2710.200
595.22	2785.500
595.55	2833.900
595.88	2893.500
596.22	2939.400
596.55	2989.100
596.88	3024.900
597.21	3047.000
597.54	3061.700
597.87	3047.800
598.21	3048.000
598.54	3038.000
598.87	2992.700
599.20	2922.900
599.53	2854.100
599.86	2778.600
600.19	2705.500
600.53	2599.500
600.86	2502.100
601.19	2394.400
601.52	2289.500
601.85	2167.600
602.18	2074.300
602.51	1952.900
602.84	1849.100
603.17	1752.500
603.50	1646.600
603.84	1555.800
604.17	1463.100
604.50	1375.100
604.83	1291.300
605.16	1224.300
605.49	1148.400
605.82	1077.300
606.15	1018.500
606.48	966.600
606.81	915.000
607.14	865.600
607.47	817.400
607.80	780.500
608.13	739.400
608.46	699.000
608.79	664.200
609.12	633.000
609.45	600.900
609.78	578.400
610.11	549.800
610.44	525.200
610.77	499.500
611.10	477.000
611.43	459.300
611.76	441.500
612.09	422.100
612.42	412.300
612.75	391.000
613.08	378.700
613.41	360.100
613.74	347.500
614.07	340.000
614.40	327.600
614.73	316.500
615.06	307.900
615.39	298.700
615.72	290.800
616.05	283.600
616.38	275.200
616.71	273.800
617.04	263.000
617.37	262.200
617.69	254.500
618.02	249.400
618.35	246.700
618.68	241.000
619.01	240.800
619.34	234.200
619.67	230.500
620.00	228.500
620.33	228.700
620.65	220.700
620.98	221.200
621.31	216.200
621.64	214.800
621.97	211.700
622.30	213.900
622.63	209.400
622.95	208.100
623.28	205.600
623.61	203.100
623.94	200.500
624.27	200.500
624.60	198.000
624.92	197.900
625.25	195.200
625.58	193.500
625.91	193.400
626.24	193.200
626.56	192.900
626.89	190.600
627.22	189.200
627.55	188.400
627.87	186.200
628.20	187.500
628.53	186.100
628.86	185.500
629.19	183.100
629.51	183.700
629.84	185.900
630.17	181.900
630.50	182.900
630.82	181.200
631.15	181.200
631.48	179.300
631.80	182.200
632.13	179.300
632.46	185.800
632.79	180.500
633.11	180.800
633.44	178.000
633.77	179.000
634.09	179.700
634.42	181.200
634.75	177.800
635.08	177.000
635.40	177.400
635.73	177.800
636.06	176.900
636.38	177.700
636.71	176.600
637.04	177.500
637.36	178.900
637.69	176.300
638.01	177.000
638.34	177.700
638.67	176.000
638.99	176.500
639.32	175.600
639.65	176.600
639.97	175.400
640.30	178.400
640.62	175.800
640.95	176.000
641.28	177.400
641.60	174.700
641.93	176.400
642.25	176.700
642.58	174.500
642.91	176.200
643.23	176.700
643.56	175.200
643.88	174.100
644.21	174.200
644.53	179.800
644.86	174.600
645.18	173.800
645.51	174.300
645.84	173.600
646.16	174.700
646.49	174.600
646.81	175.200
647.14	172.900
647.46	175.100
647.79	174.600
648.11	175.100
648.44	175.000
648.76	177.900
649.09	176.700
649.41	174.600
649.74	174.600
650.06	175.400
650.39	174.000
650.71	173.900
651.04	174.800
651.36	174.300
651.69	173.200
652.01	174.100
652.33	174.300
652.66	174.400
652.98	172.500
653.31	174.100
653.63	173.600
653.96	172.700
654.28	173.600
654.60	175.100
654.93	187.700
655.25	174.100
655.58	173.900
655.90	175.700
656.22	175.100
656.55	174.700
656.87	174.000
657.20	174.400
657.52	174.300
657.84	172.100
658.17	174.800
658.49	175.800
658.82	174.700
659.14	172.900
659.46	173.200
659.79	173.400
660.11	173.700
660.43	173.700
660.76	173.700
661.08	174.000
661.40	174.300
661.73	172.900
662.05	173.700
662.37	173.000
662.70	173.000
663.02	174.600
663.34	173.400
663.66	174.700
663.99	174.000
664.31	173.700
664.63	172.600
664.96	173.500
665.28	174.800
665.60	175.200
665.92	173.700
666.25	173.500
666.57	176.600
666.89	173.500
667.21	173.600
667.54	174.000
667.86	173.600
668.18	172.200
668.50	174.100
668.83	174.000
669.15	173.400
669.47	175.100
669.79	173.600
670.11	174.600
670.44	175.700
670.76	172.400
671.08	172.900
671.40	173.700
671.72	173.400
672.05	175.100
672.37	173.500
672.69	174.600
673.01	173.400
673.33	172.200
673.65	173.000
673.98	175.300
674.30	177.800
674.62	173.800
674.94	173.900
675.26	174.600
675.58	173.000
675.90	173.100
676.22	172.800
676.55	174.200
676.87	173.700
677.19	174.300
677.51	172.800
677.83	173.900
678.15	174.700
678.47	176.000
678.79	173.200
679.11	172.400
679.43	174.800
679.76	173.700
680.08	173.700
680.40	174.500
680.72	172.600
681.04	173.300
681.36	174.700
681.68	174.800
682.00	177.000
682.32	173.100
682.64	175.600
682.96	176.500
683.28	173.500
683.60	173.000
683.92	173.000
684.24	173.600
684.56	178.100
684.88	173.700
685.20	174.400
685.52	173.400
685.84	173.500
686.16	173.900
686.48	173.100
686.80	172.700
687.12	175.400
687.44	176.100
687.76	173.900
688.08	173.900
688.40	172.500
688.72	174.800
689.04	172.200
689.36	173.900
689.68	173.800
689.99	174.200
690.31	173.800
690.63	174.000
690.95	174.100
691.27	173.500
691.59	172.800
691.91	171.400
692.23	173.200
692.55	172.600
692.87	173.700
693.18	173.300
693.50	172.400
693.82	172.700
694.14	174.500
694.46	172.900
694.78	174.900
695.10	174.500
695.41	172.800
695.73	173.400
696.05	174.900
696.37	174.000
696.69	175.400
697.01	175.000
697.32	174.100
697.64	174.400
697.96	174.000
698.28	173.400
698.60	172.400
698.92	176.000
699.23	172.400
699.55	174.900
699.87	177.400
700.19	174.100
700.50	173.100
700.82	173.500
701.14	172.800
701.46	171.900
701.78	174.100
702.09	172.900
702.41	174.800
702.73	175.700
703.04	174.000
703.36	172.500
703.68	172.600
704.00	171.700
704.31	175.100
704.63	170.900
704.95	173.300
705.27	172.600
705.58	174.200
705.90	172.400
706.22	173.500
706.53	173.100
706.85	173.000
707.17	173.800
707.48	172.500
707.80	172.400
708.12	174.400
708.43	174.900
708.75	173.100
709.07	173.400
709.38	173.500
709.70	178.900
710.02	171.900
710.33	172.800
710.65	172.700
710.96	173.400
711.28	173.900
711.60	172.900
711.91	174.200
712.23	173.900
712.54	170.500
712.86	173.700
713.18	173.100
713.49	172.200
713.81	172.900
714.12	175.900
714.44	173.300
714.76	173.700
715.07	174.100
715.39	173.700
715.70	173.700
716.02	173.800
716.33	173.500
716.65	173.400
716.96	173.900
717.28	172.900
717.59	173.800
717.91	172.300
718.22	172.900
718.54	173.200
718.86	173.500
719.17	175.000
719.49	172.100
719.80	173.300
720.11	172.700
720.43	174.000
720.74	173.100
721.06	173.200
721.37	174.300
721.69	172.800
722.00	174.800
722.32	172.900
722.63	173.900
722.95	173.700
723.26	173.300
723.58	173.400
723.89	173.800
724.20	174.900
724.52	172.900
724.83	172.000
725.15	173.500
725.46	177.500
725.77	172.900
726.09	173.800
726.40	171.700
726.72	172.100
727.03	173.100
727.34	173.900
727.66	173.300
727.97	176.800
728.29	174.400
728.60	173.700
728.91	173.000
729.23	173.900
729.54	174.700
729.85	173.100
730.17	173.400
730.48	172.500
730.79	175.600
731.11	173.800
731.42	173.100
731.73	173.100
732.05	171.900
732.36	173.300
732.67	175.500
732.98	173.500
733.30	174.000
733.61	175.100
733.92	173.900
734.24	174.300
734.55	173.300
734.86	174.100
735.17	176.400
735.49	173.500
735.80	172.600
736.11	173.500
736.42	174.500
736.74	174.100
737.05	173.300
737.36	172.000
737.67	172.400
737.98	173.700
738.30	173.100
738.61	173.500
738.92	175.900
739.23	173.600
739.54	171.800
739.86	173.800
740.17	173.200
740.48	173.000
740.79	174.100
741.10	174.100
741.42	172.800
741.73	174.700
742.04	174.700
742.35	173.600
742.66	176.100
742.97	172.300
743.28	174.700
743.60	173.100
743.91	172.100
744.22	174.200
744.53	174.800
744.84	173.800
745.15	172.300
745.46	174.300
745.77	172.000
746.08	173.800
746.40	174.800
746.71	173.500
747.02	173.300
747.33	172.400
747.64	172.500
747.95	173.200
748.26	174.900
748.57	173.100
748.88	174.000
749.19	173.700
749.50	174.500
749.81	174.100
750.12	174.600
750.43	172.600
750.74	174.500
751.05	173.700
751.36	182.200
751.67	173.000
751.98	173.100
752.29	171.400
752.60	175.100
752.91	174.500
753.22	176.100
753.53	172.400
753.84	174.800
754.15	174.900
754.46	173.800
754.77	173.900
755.08	174.000
755.39	173.100
755.70	175.500
756.01	173.000
756.32	175.400
756.63	172.100
756.94	172.800
757.25	173.000
757.56	173.500
757.86	173.800
758.17	174.800
758.48	172.400
758.79	173.600
759.10	172.400
759.41	173.400
759.72	172.800
760.03	174.000
760.34	172.200
760.64	173.900
760.95	179.700
761.26	173.000
