OOIBase32 Version 2.0.6.5 Data File
++++++++++++++++++++++++++++++++++++
Date: 05-07-2014, 16:30:59
User: Valued Ocean Optics Customer
Spectrometer Serial Number: 
Spectrometer Channel: Master
Integration Time (msec): 50
Spectra Averaged: 10
Boxcar Smoothing: 0
Correct for Electrical Dark: Disabled
Time Normalized: Disabled
Dual-beam Reference: Disabled
Reference Channel: Master
Temperature: Not acquired
Spectrometer Type: S2000
ADC Type: USB2000
Number of Pixels in File: 2048
Graph Title: 
>>>>>Begin Spectral Data<<<<<
355.95	0.000
356.31	165.900
356.67	167.200
357.03	166.800
357.38	168.700
357.74	171.300
358.10	169.500
358.45	171.300
358.81	174.700
359.17	171.900
359.53	173.100
359.88	172.800
360.24	173.000
360.60	173.300
360.95	173.000
361.31	173.000
361.67	173.700
362.03	174.400
362.38	173.500
362.74	173.600
363.10	173.100
363.45	173.400
363.81	172.500
364.17	171.500
364.52	172.200
364.88	176.900
365.24	172.800
365.59	173.800
365.95	172.700
366.31	173.200
366.66	173.300
367.02	175.000
367.38	175.600
367.73	174.400
368.09	173.500
368.45	175.100
368.80	173.200
369.16	174.100
369.51	173.400
369.87	174.300
370.23	174.000
370.58	173.000
370.94	174.000
371.30	174.100
371.65	173.800
372.01	173.000
372.36	174.700
372.72	173.600
373.08	175.300
373.43	177.000
373.79	174.000
374.14	174.600
374.50	172.800
374.85	173.700
375.21	174.600
375.57	173.800
375.92	176.100
376.28	174.900
376.63	175.400
376.99	174.800
377.34	172.500
377.70	175.100
378.06	173.700
378.41	174.000
378.77	176.100
379.12	173.800
379.48	174.000
379.83	175.000
380.19	174.100
380.54	174.200
380.90	172.500
381.25	174.900
381.61	173.100
381.96	173.700
382.32	174.200
382.67	175.500
383.03	173.600
383.38	177.900
383.74	174.200
384.09	173.900
384.45	173.300
384.80	172.800
385.16	173.600
385.51	174.000
385.87	171.800
386.22	172.600
386.58	174.400
386.93	174.000
387.29	172.800
387.64	173.000
388.00	173.600
388.35	173.300
388.70	175.800
389.06	172.600
389.41	173.100
389.77	172.400
390.12	171.700
390.48	172.600
390.83	172.600
391.19	171.700
391.54	173.600
391.89	173.000
392.25	172.300
392.60	172.100
392.96	172.100
393.31	173.300
393.66	172.700
394.02	171.200
394.37	171.900
394.73	172.300
395.08	173.300
395.43	170.100
395.79	171.300
396.14	174.900
396.50	171.600
396.85	172.100
397.20	171.900
397.56	171.800
397.91	173.300
398.26	172.600
398.62	172.800
398.97	172.300
399.32	171.800
399.68	169.000
400.03	171.600
400.38	172.700
400.74	173.100
401.09	171.900
401.44	172.700
401.80	172.300
402.15	172.700
402.50	171.100
402.86	170.000
403.21	171.100
403.56	171.300
403.92	172.600
404.27	172.500
404.62	172.700
404.98	172.000
405.33	172.000
405.68	171.300
406.03	172.700
406.39	173.000
406.74	171.700
407.09	171.800
407.44	173.200
407.80	172.100
408.15	174.400
408.50	174.700
408.86	171.400
409.21	174.000
409.56	173.500
409.91	171.900
410.27	174.000
410.62	172.500
410.97	171.200
411.32	173.100
411.67	172.900
412.03	172.400
412.38	172.200
412.73	173.600
413.08	172.000
413.44	173.000
413.79	172.900
414.14	173.500
414.49	173.800
414.84	173.100
415.20	175.500
415.55	173.100
415.90	172.800
416.25	174.700
416.60	172.900
416.95	175.000
417.31	173.400
417.66	172.800
418.01	171.800
418.36	172.700
418.71	172.900
419.06	171.600
419.42	176.800
419.77	173.200
420.12	173.900
420.47	174.000
420.82	173.300
421.17	171.900
421.52	172.700
421.88	173.300
422.23	173.000
422.58	170.800
422.93	173.300
423.28	173.600
423.63	172.500
423.98	172.900
424.33	173.200
424.69	172.000
425.04	173.800
425.39	172.800
425.74	172.500
426.09	175.500
426.44	172.800
426.79	173.300
427.14	176.100
427.49	174.600
427.84	172.200
428.19	172.800
428.54	173.100
428.89	172.900
429.25	173.600
429.60	171.900
429.95	174.000
430.30	172.600
430.65	173.100
431.00	174.100
431.35	173.900
431.70	173.200
432.05	172.800
432.40	171.500
432.75	171.900
433.10	174.800
433.45	174.100
433.80	172.000
434.15	173.100
434.50	172.800
434.85	173.000
435.20	172.000
435.55	172.500
435.90	172.000
436.25	173.400
436.60	172.800
436.95	172.700
437.30	170.500
437.65	173.000
438.00	172.600
438.35	172.800
438.70	172.000
439.05	172.100
439.40	172.500
439.75	172.800
440.10	172.800
440.44	173.300
440.79	173.600
441.14	173.200
441.49	171.400
441.84	171.100
442.19	172.100
442.54	172.400
442.89	171.400
443.24	171.900
443.59	172.000
443.94	172.600
444.29	171.400
444.64	173.200
444.98	172.600
445.33	172.500
445.68	171.600
446.03	172.000
446.38	173.800
446.73	172.100
447.08	172.000
447.43	170.300
447.78	172.200
448.12	171.800
448.47	174.300
448.82	172.000
449.17	172.000
449.52	173.100
449.87	172.800
450.21	172.000
450.56	171.600
450.91	170.500
451.26	171.100
451.61	173.700
451.96	172.000
452.30	173.400
452.65	171.500
453.00	173.300
453.35	172.500
453.70	172.300
454.05	174.700
454.39	172.500
454.74	173.500
455.09	172.200
455.44	174.000
455.79	173.100
456.13	172.400
456.48	171.200
456.83	173.000
457.18	172.500
457.52	172.800
457.87	172.600
458.22	173.100
458.57	172.600
458.91	173.000
459.26	172.800
459.61	173.000
459.96	172.800
460.30	174.100
460.65	177.000
461.00	172.700
461.35	172.600
461.69	172.600
462.04	172.900
462.39	173.400
462.73	172.600
463.08	173.800
463.43	172.300
463.78	174.000
464.12	173.500
464.47	173.500
464.82	172.800
465.16	173.700
465.51	173.700
465.86	172.700
466.20	173.100
466.55	174.000
466.90	171.500
467.24	172.700
467.59	174.600
467.94	174.900
468.28	172.500
468.63	172.900
468.98	171.700
469.32	173.900
469.67	174.000
470.02	173.400
470.36	174.600
470.71	174.500
471.06	172.600
471.40	174.700
471.75	172.100
472.09	173.900
472.44	174.400
472.79	171.400
473.13	172.900
473.48	172.000
473.82	174.600
474.17	175.100
474.52	173.900
474.86	174.200
475.21	174.100
475.55	173.500
475.90	172.000
476.25	171.600
476.59	172.900
476.94	173.800
477.28	173.400
477.63	173.200
477.97	173.400
478.32	171.700
478.66	173.400
479.01	172.600
479.35	172.700
479.70	173.200
480.05	172.100
480.39	171.900
480.74	172.800
481.08	171.500
481.43	172.900
481.77	173.300
482.12	173.400
482.46	173.200
482.81	174.200
483.15	172.400
483.50	172.300
483.84	173.200
484.19	172.400
484.53	170.400
484.88	173.000
485.22	171.800
485.57	173.900
485.91	172.100
486.25	172.200
486.60	172.800
486.94	172.300
487.29	174.000
487.63	172.600
487.98	171.800
488.32	172.400
488.67	173.300
489.01	172.700
489.36	173.600
489.70	172.600
490.04	171.600
490.39	172.600
490.73	172.000
491.08	172.700
491.42	171.300
491.76	171.800
492.11	173.700
492.45	171.900
492.80	173.800
493.14	172.700
493.48	172.700
493.83	172.600
494.17	172.400
494.52	173.000
494.86	173.900
495.20	173.600
495.55	174.300
495.89	173.800
496.23	172.700
496.58	173.600
496.92	173.700
497.26	174.100
497.61	172.500
497.95	173.100
498.29	172.600
498.64	173.300
498.98	173.300
499.32	174.000
499.67	172.900
500.01	173.900
500.35	172.500
500.70	175.200
501.04	174.200
501.38	172.200
501.73	173.000
502.07	172.500
502.41	173.400
502.75	173.500
503.10	172.100
503.44	171.700
503.78	172.900
504.12	172.500
504.47	174.500
504.81	173.800
505.15	172.900
505.50	173.600
505.84	174.100
506.18	171.600
506.52	172.900
506.87	173.200
507.21	173.300
507.55	173.200
507.89	173.600
508.23	173.000
508.58	175.300
508.92	174.600
509.26	174.100
509.60	172.900
509.94	174.600
510.29	175.100
510.63	174.300
510.97	173.900
511.31	173.600
511.65	173.600
512.00	172.700
512.34	174.600
512.68	173.400
513.02	173.200
513.36	175.300
513.70	172.000
514.05	172.700
514.39	172.500
514.73	172.700
515.07	174.000
515.41	174.200
515.75	173.400
516.10	176.500
516.44	174.700
516.78	173.500
517.12	173.800
517.46	173.300
517.80	176.200
518.14	173.500
518.48	173.600
518.82	172.300
519.17	174.500
519.51	172.300
519.85	172.700
520.19	173.200
520.53	173.800
520.87	172.500
521.21	174.100
521.55	172.600
521.89	173.800
522.23	171.700
522.57	173.200
522.91	171.900
523.25	172.400
523.60	174.300
523.94	173.200
524.28	173.300
524.62	173.200
524.96	174.500
525.30	173.900
525.64	173.400
525.98	172.200
526.32	173.600
526.66	173.200
527.00	171.700
527.34	174.300
527.68	173.600
528.02	172.300
528.36	173.500
528.70	174.000
529.04	175.000
529.38	173.500
529.72	172.400
530.06	173.600
530.40	172.200
530.74	174.500
531.08	173.000
531.42	172.400
531.76	173.200
532.10	175.700
532.43	173.300
532.77	173.800
533.11	173.300
533.45	172.000
533.79	173.400
534.13	173.100
534.47	174.400
534.81	172.200
535.15	173.700
535.49	173.500
535.83	173.600
536.17	173.800
536.51	173.900
536.84	174.400
537.18	174.300
537.52	175.400
537.86	174.300
538.20	175.100
538.54	172.300
538.88	173.900
539.22	176.200
539.56	174.400
539.89	171.700
540.23	172.900
540.57	174.100
540.91	174.100
541.25	173.900
541.59	173.700
541.92	171.600
542.26	172.600
542.60	174.500
542.94	173.300
543.28	174.100
543.62	174.600
543.95	175.000
544.29	172.600
544.63	174.500
544.97	173.600
545.31	173.500
545.64	173.800
545.98	173.500
546.32	173.200
546.66	174.800
547.00	174.400
547.33	173.800
547.67	178.600
548.01	173.600
548.35	173.900
548.68	173.700
549.02	173.900
549.36	174.300
549.70	174.000
550.03	175.000
550.37	173.400
550.71	174.400
551.05	175.200
551.38	175.000
551.72	174.000
552.06	172.300
552.40	173.700
552.73	174.800
553.07	174.000
553.41	176.600
553.74	175.300
554.08	174.400
554.42	174.600
554.75	174.700
555.09	173.600
555.43	175.500
555.77	174.400
556.10	173.200
556.44	173.500
556.78	174.200
557.11	173.900
557.45	173.000
557.78	176.600
558.12	173.200
558.46	172.500
558.79	174.200
559.13	173.700
559.47	174.300
559.80	175.500
560.14	172.600
560.48	174.900
560.81	174.200
561.15	175.300
561.48	175.100
561.82	181.000
562.16	174.500
562.49	174.700
562.83	173.500
563.16	175.500
563.50	176.300
563.84	174.900
564.17	172.800
564.51	176.200
564.84	174.700
565.18	175.900
565.51	174.400
565.85	174.400
566.19	173.700
566.52	174.400
566.86	175.900
567.19	175.400
567.53	173.900
567.86	175.400
568.20	175.400
568.53	175.100
568.87	175.500
569.20	176.300
569.54	175.000
569.87	174.200
570.21	175.400
570.54	174.000
570.88	175.800
571.21	174.300
571.55	175.800
571.88	175.500
572.22	175.300
572.55	175.900
572.89	176.600
573.22	176.400
573.56	179.800
573.89	176.000
574.23	175.900
574.56	177.100
574.89	177.600
575.23	179.100
575.56	178.000
575.90	176.500
576.23	178.400
576.57	178.800
576.90	182.000
577.23	177.600
577.57	180.100
577.90	177.600
578.24	179.500
578.57	178.200
578.91	178.300
579.24	177.500
579.57	181.000
579.91	179.000
580.24	179.600
580.57	178.600
580.91	180.200
581.24	180.300
581.58	181.000
581.91	180.300
582.24	181.000
582.58	183.100
582.91	182.200
583.24	182.400
583.58	182.600
583.91	183.900
584.24	184.700
584.58	183.600
584.91	185.700
585.24	183.500
585.58	187.800
585.91	185.100
586.24	183.500
586.58	187.000
586.91	186.400
587.24	187.800
587.57	187.500
587.91	188.600
588.24	188.200
588.57	189.900
588.91	190.800
589.24	194.600
589.57	190.100
589.90	191.100
590.24	193.300
590.57	194.400
590.90	195.000
591.23	195.300
591.57	196.800
591.90	199.400
592.23	199.200
592.56	198.700
592.90	199.600
593.23	202.300
593.56	203.400
593.89	203.600
594.22	206.400
594.56	208.400
594.89	209.200
595.22	209.200
595.55	211.500
595.88	212.700
596.22	214.800
596.55	217.400
596.88	217.900
597.21	219.100
597.54	221.300
597.87	223.500
598.21	224.700
598.54	227.600
598.87	230.200
599.20	232.600
599.53	233.900
599.86	236.400
600.19	240.600
600.53	242.600
600.86	246.600
601.19	248.200
601.52	251.100
601.85	253.600
602.18	260.600
602.51	261.300
602.84	266.000
603.17	267.900
603.50	270.800
603.84	275.900
604.17	281.400
604.50	285.100
604.83	288.200
605.16	290.800
605.49	296.600
605.82	301.600
606.15	306.500
606.48	313.500
606.81	321.200
607.14	324.600
607.47	330.600
607.80	337.700
608.13	343.000
608.46	350.500
608.79	356.600
609.12	364.600
609.45	371.800
609.78	381.100
610.11	389.000
610.44	395.900
610.77	402.800
611.10	412.400
611.43	424.500
611.76	434.300
612.09	444.200
612.42	459.600
612.75	465.000
613.08	476.700
613.41	486.300
613.74	497.900
614.07	515.100
614.40	529.400
614.73	541.900
615.06	557.600
615.39	568.700
615.72	587.700
616.05	607.100
616.38	624.000
616.71	648.900
617.04	665.600
617.37	689.300
617.69	706.800
618.02	734.500
618.35	756.200
618.68	778.900
619.01	808.100
619.34	831.100
619.67	857.800
620.00	883.100
620.33	914.000
620.65	941.600
620.98	980.800
621.31	1013.500
621.64	1041.000
621.97	1089.400
622.30	1112.900
622.63	1155.600
622.95	1204.000
623.28	1243.200
623.61	1287.600
623.94	1329.000
624.27	1385.300
624.60	1420.200
624.92	1479.600
625.25	1524.400
625.58	1584.100
625.91	1630.000
626.24	1666.300
626.56	1742.000
626.89	1800.700
627.22	1845.500
627.55	1907.000
627.87	1977.200
628.20	2031.400
628.53	2109.700
628.86	2159.100
629.19	2231.400
629.51	2305.200
629.84	2375.700
630.17	2438.200
630.50	2502.300
630.82	2590.600
631.15	2643.100
631.48	2726.700
631.80	2787.900
632.13	2862.100
632.46	2922.800
632.79	2999.000
633.11	3063.000
633.44	3128.000
633.77	3197.800
634.09	3250.000
634.42	3324.000
634.75	3342.000
635.08	3398.900
635.40	3430.600
635.73	3474.900
636.06	3484.800
636.38	3482.500
636.71	3508.500
637.04	3488.900
637.36	3452.100
637.69	3382.500
638.01	3330.900
638.34	3307.900
638.67	3210.500
638.99	3111.700
639.32	3022.600
639.65	2915.900
639.97	2802.600
640.30	2686.400
640.62	2566.000
640.95	2438.000
641.28	2312.100
641.60	2179.400
641.93	2063.500
642.25	1935.100
642.58	1826.800
642.91	1718.300
643.23	1618.100
643.56	1510.200
643.88	1417.500
644.21	1333.400
644.53	1248.200
644.86	1172.600
645.18	1102.300
645.51	1037.700
645.84	974.600
646.16	921.500
646.49	865.100
646.81	821.200
647.14	780.400
647.46	735.600
647.79	702.300
648.11	657.800
648.44	626.500
648.76	605.800
649.09	576.700
649.41	552.300
649.74	524.100
650.06	504.400
650.39	485.300
650.71	463.500
651.04	442.800
651.36	427.000
651.69	411.500
652.01	399.000
652.33	381.200
652.66	370.700
652.98	357.000
653.31	346.500
653.63	334.900
653.96	325.600
654.28	314.600
654.60	305.700
654.93	306.000
655.25	290.600
655.58	285.900
655.90	277.800
656.22	270.900
656.55	264.800
656.87	262.100
657.20	256.800
657.52	251.000
657.84	246.100
658.17	242.000
658.49	237.600
658.82	233.500
659.14	232.500
659.46	229.400
659.79	226.500
660.11	221.900
660.43	219.500
660.76	218.900
661.08	216.200
661.40	215.000
661.73	212.200
662.05	209.200
662.37	206.000
662.70	206.200
663.02	204.700
663.34	203.000
663.66	201.800
663.99	201.400
664.31	200.400
664.63	198.700
664.96	196.700
665.28	195.700
665.60	195.200
665.92	194.200
666.25	193.900
666.57	193.800
666.89	190.000
667.21	189.900
667.54	188.900
667.86	188.300
668.18	186.600
668.50	186.500
668.83	185.600
669.15	186.500
669.47	185.600
669.79	184.300
670.11	184.400
670.44	182.100
670.76	182.900
671.08	183.100
671.40	181.400
671.72	181.400
672.05	181.000
672.37	180.500
672.69	182.100
673.01	178.600
673.33	179.500
673.65	180.500
673.98	181.200
674.30	181.700
674.62	179.100
674.94	177.900
675.26	178.700
675.58	178.000
675.90	180.500
676.22	178.100
676.55	176.300
676.87	178.900
677.19	179.000
677.51	177.300
677.83	178.100
678.15	176.900
678.47	178.600
678.79	177.400
679.11	176.000
679.43	175.700
679.76	176.400
680.08	176.900
680.40	174.100
680.72	175.400
681.04	177.000
681.36	174.900
681.68	175.000
682.00	177.700
682.32	175.200
682.64	177.000
682.96	177.300
683.28	176.000
683.60	173.900
683.92	174.100
684.24	175.200
684.56	176.600
684.88	175.500
685.20	174.800
685.52	174.700
685.84	174.900
686.16	175.800
686.48	175.000
686.80	174.300
687.12	174.100
687.44	173.900
687.76	174.800
688.08	174.000
688.40	175.900
688.72	175.400
689.04	174.400
689.36	174.500
689.68	173.900
689.99	173.400
690.31	173.900
690.63	175.300
690.95	174.600
691.27	175.100
691.59	173.900
691.91	174.100
692.23	174.600
692.55	173.400
692.87	172.400
693.18	174.200
693.50	175.200
693.82	173.900
694.14	173.400
694.46	174.100
694.78	173.400
695.10	173.800
695.41	175.300
695.73	173.800
696.05	174.900
696.37	172.900
696.69	173.600
697.01	173.200
697.32	175.000
697.64	176.000
697.96	172.200
698.28	173.600
698.60	174.000
698.92	175.700
699.23	174.700
699.55	175.500
699.87	176.200
700.19	174.400
700.50	173.900
700.82	174.900
701.14	172.900
701.46	174.200
701.78	173.300
702.09	172.700
702.41	174.000
702.73	173.100
703.04	173.100
703.36	173.300
703.68	174.900
704.00	173.300
704.31	174.300
704.63	172.800
704.95	173.400
705.27	173.100
705.58	172.200
705.90	174.200
706.22	172.600
706.53	172.900
706.85	173.800
707.17	172.900
707.48	173.700
707.80	173.500
708.12	172.600
708.43	172.800
708.75	172.400
709.07	174.300
709.38	174.100
709.70	177.000
710.02	173.300
710.33	174.000
710.65	173.800
710.96	172.700
711.28	173.500
711.60	173.300
711.91	175.200
712.23	173.300
712.54	172.700
712.86	171.700
713.18	173.200
713.49	173.200
713.81	174.400
714.12	175.800
714.44	173.000
714.76	174.100
715.07	175.100
715.39	173.700
715.70	174.000
716.02	173.700
716.33	171.900
716.65	172.400
716.96	174.600
717.28	173.500
717.59	173.000
717.91	172.600
718.22	172.800
718.54	172.800
718.86	174.900
719.17	174.400
719.49	172.500
719.80	172.700
720.11	172.300
720.43	173.100
720.74	176.000
721.06	173.700
721.37	174.200
721.69	174.200
722.00	173.200
722.32	174.200
722.63	172.000
722.95	174.600
723.26	174.600
723.58	172.400
723.89	174.000
724.20	173.300
724.52	173.500
724.83	173.000
725.15	175.200
725.46	174.600
725.77	172.700
726.09	172.800
726.40	173.900
726.72	174.600
727.03	173.600
727.34	174.000
727.66	173.400
727.97	174.500
728.29	173.200
728.60	173.000
728.91	173.200
729.23	174.000
729.54	173.700
729.85	173.700
730.17	174.200
730.48	174.800
730.79	173.600
731.11	172.900
731.42	174.100
731.73	173.000
732.05	173.500
732.36	173.400
732.67	175.700
732.98	174.300
733.30	173.300
733.61	174.000
733.92	172.700
734.24	173.500
734.55	174.500
734.86	173.600
735.17	175.700
735.49	173.400
735.80	174.300
736.11	172.900
736.42	173.100
736.74	174.400
737.05	172.600
737.36	174.900
737.67	173.900
737.98	172.700
738.30	172.600
738.61	174.400
738.92	175.200
739.23	172.900
739.54	172.900
739.86	174.000
740.17	173.700
740.48	173.100
740.79	175.000
741.10	173.800
741.42	174.300
741.73	172.500
742.04	174.600
742.35	173.300
742.66	174.300
742.97	173.900
743.28	173.900
743.60	172.900
743.91	173.100
744.22	173.800
744.53	173.600
744.84	173.100
745.15	173.100
745.46	173.000
745.77	174.000
746.08	174.300
746.40	174.100
746.71	176.100
747.02	173.300
747.33	172.500
747.64	172.100
747.95	173.100
748.26	173.100
748.57	173.600
748.88	173.600
749.19	174.300
749.50	173.000
749.81	173.800
750.12	174.100
750.43	173.900
750.74	174.600
751.05	174.700
751.36	178.900
751.67	173.700
751.98	173.900
752.29	174.000
752.60	174.500
752.91	173.800
753.22	175.200
753.53	173.200
753.84	172.500
754.15	174.100
754.46	173.800
754.77	172.900
755.08	173.300
755.39	174.600
755.70	174.100
756.01	172.700
756.32	172.700
756.63	173.400
756.94	173.500
757.25	173.500
757.56	174.200
757.86	172.900
758.17	176.100
758.48	172.500
758.79	173.000
759.10	174.800
759.41	172.500
759.72	173.600
760.03	173.500
760.34	173.100
760.64	173.900
760.95	176.200
